wavelenght (nm)       photodissociation yield
3.0000000000000000        0.0000000000000000     
9.0000000000000000        0.0000000000000000     
15.000000000000000        0.0000000000000000     
21.000000000000000        0.0000000000000000     
27.000000000000000        0.0000000000000000     
33.000000000000000        0.0000000000000000     
39.000000000000000        0.0000000000000000     
45.000000000000000        0.0000000000000000     
51.000000000000000        0.0000000000000000     
57.000000000000000        1.6334521791846902E-002
61.000000000000000       0.18054947465070600     
63.000000000000000       0.17921425790836787     
65.000000000000000       0.17073138944113103     
67.000000000000000       0.16524733372987091     
69.000000000000000       0.17518650653479340     
71.000000000000000       0.20407818432362895     
73.000000000000000       0.21655990416298496     
75.000000000000000       0.13278829389788294     
77.000000000000000       0.20246324275287131     
79.000000000000000       0.22962668149188503     
82.500000000000000       0.23117696629213486     
86.000000000000000       0.47000000000000003     
88.000000000000000       0.63873750000000007     
90.000000000000000       0.79949999999999999     
92.000000000000000       0.95488750000000000     
94.000000000000000        1.0000000000000000     
96.000000000000000        1.0000000000000000     
98.000000000000000        1.0000000000000000     
100.00000000000000        1.0000000000000000     
102.00000000000000        1.0000000000000000     
104.00000000000000        1.0000000000000000     
106.00000000000000        1.0000000000000000     
108.00000000000000        1.0000000000000000     
110.00000000000000        1.0000000000000000     
112.00000000000000        1.0000000000000000     
114.00000000000000        1.0000000000000000     
116.00000000000000        1.0000000000000000     
118.50000000000000        1.0000000000000000     
120.09999999999999        1.0000000000000000     
120.30000000000001        1.0000000000000000     
120.50000000000000        1.0000000000000000     
120.69999999999999        1.0000000000000000     
120.90000000000001        1.0000000000000000     
121.09999999999999        1.0000000000000000     
121.30000000000001        1.0000000000000000     
121.50000000000000        1.0000000000000000     
121.69999999999999        1.0000000000000000     
121.90000000000001        1.0000000000000000     
122.09999999999999        1.0000000000000000     
122.30000000000001        1.0000000000000000     
122.50000000000000        1.0000000000000000     
122.69999999999999        1.0000000000000000     
122.90000000000001        1.0000000000000000     
125.50000000000000        1.0000000000000000     
130.50000000000000        1.0000000000000000     
135.50000000000000        1.0000000000000000     
140.50000000000000        1.0000000000000000     
145.50000000000000        1.0000000000000000     
150.50000000000000        1.0000000000000000     
155.50000000000000        1.0000000000000000     
160.50000000000000        1.0000000000000000     
164.00000000000000        1.0000000000000000     
166.00000000000000        1.0000000000000000     
168.00000000000000        0.0000000000000000     
