wavelenght (nm)       photodissociation yield
3.0000000000000000        0.0000000000000000     
9.0000000000000000        0.0000000000000000     
15.000000000000000        0.0000000000000000     
21.000000000000000        0.0000000000000000     
27.000000000000000        0.0000000000000000     
33.000000000000000        0.0000000000000000     
39.000000000000000        0.0000000000000000     
45.000000000000000        0.0000000000000000     
51.000000000000000        0.0000000000000000     
57.000000000000000        0.0000000000000000     
61.000000000000000        0.0000000000000000     
63.000000000000000        2.9674410937500013E-002
65.000000000000000        3.4739000000000006E-002
67.000000000000000        3.1213125000000001E-002
69.000000000000000        6.9305200000000011E-002
71.000000000000000       0.12442280000000000     
73.000000000000000       0.20405606249999997     
75.000000000000000       0.34361649999999999     
77.000000000000000       0.48261605000000007     
79.000000000000000       0.54934890000000003     
82.500000000000000       0.57077112500000005     
86.000000000000000       0.43514740000000002     
88.000000000000000       0.35143671250000003     
90.000000000000000       0.31347750000000002     
92.000000000000000       0.27960612499999998     
94.000000000000000       0.28991570000000000     
96.000000000000000       0.31829930000000001     
98.000000000000000       0.39134900000000006     
100.00000000000000       0.57358250000000011     
102.00000000000000       0.80254143112500009     
104.00000000000000        1.0000000000000000     
106.00000000000000        1.0000000000000000     
108.00000000000000        1.0000000000000000     
110.00000000000000        1.0000000000000000     
112.00000000000000        1.0000000000000000     
114.00000000000000        1.0000000000000000     
116.00000000000000        1.0000000000000000     
118.50000000000000        1.0000000000000000     
120.09999999999999        1.0000000000000000     
120.30000000000001        1.0000000000000000     
120.50000000000000        1.0000000000000000     
120.69999999999999        1.0000000000000000     
120.90000000000001        1.0000000000000000     
121.09999999999999        1.0000000000000000     
121.30000000000001        1.0000000000000000     
121.50000000000000        1.0000000000000000     
121.69999999999999        1.0000000000000000     
121.90000000000001        1.0000000000000000     
122.09999999999999        1.0000000000000000     
122.30000000000001        1.0000000000000000     
122.50000000000000        1.0000000000000000     
122.69999999999999        1.0000000000000000     
122.90000000000001        1.0000000000000000     
125.50000000000000        1.0000000000000000     
130.50000000000000        1.0000000000000000     
135.50000000000000        1.0000000000000000     
140.50000000000000        1.0000000000000000     
145.50000000000000        1.0000000000000000     
150.50000000000000        1.0000000000000000     
155.50000000000000        1.0000000000000000     
160.50000000000000        1.0000000000000000     
164.00000000000000        1.0000000000000000     
166.00000000000000        1.0000000000000000     
168.00000000000000        1.0000000000000000     
170.00000000000000        1.0000000000000000     
172.00000000000000        1.0000000000000000     
174.00000000000000        1.0000000000000000     
175.00000000000000        0.0000000000000000     
